	Unknown Methylene Blue Sample	
wavelength		
190	0.1285	1
192	0.1244	1
194	0.1193	1
196	0.1129	1
198	0.1065	1
200	0.0996	1
202	0.0919	1
204	0.0834	1
206	0.0761	1
208	0.0705	1
210	0.0667	1
212	0.0648	1
214	0.0638	1
216	0.0638	1
218	0.0639	1
220	0.064	1
222	0.065	1
224	0.067	1
226	0.0701	1
228	0.0734	1
230	0.077	1
232	0.082	1
234	0.0897	1
236	0.1002	1
238	0.1133	1
240	0.1278	1
242	0.1419	1
244	0.1534	1
246	0.1587	1
248	0.1539	1
250	0.1398	1
252	0.1231	1
254	0.1095	1
256	0.1005	1
258	0.0958	1
260	0.0945	1
262	0.0962	1
264	0.1019	1
266	0.1109	1
268	0.1225	1
270	0.1348	1
272	0.1473	1
274	0.1613	1
276	0.1787	1
278	0.1995	1
280	0.223	1
282	0.248	1
284	0.2744	1
286	0.3026	1
288	0.3299	1
290	0.3517	1
292	0.3599	1
294	0.3508	1
296	0.3262	1
298	0.2915	1
300	0.252	1
302	0.2122	1
304	0.1763	1
306	0.1459	1
308	0.1216	1
310	0.1044	1
312	0.0934	1
314	0.0863	1
316	0.0819	1
318	0.0783	1
320	0.0756	1
322	0.0736	1
324	0.072	1
326	0.0703	1
328	0.0674	1
330	0.063	1
332	0.0567	1
334	0.0494	1
336	0.0419	1
338	0.0352	1
340	0.0296	1
342	0.0252	1
344	0.0219	1
346	0.0193	1
348	0.0174	1
350	0.0158	1
352	0.0145	1
354	0.0132	1
356	0.0121	1
358	0.0111	1
360	0.0103	1
362	0.0095	1
364	0.0097	1
366	0.0089	1
368	0.0087	1
370	0.0086	1
372	0.0087	1
374	0.0087	1
376	0.0088	1
378	0.009	1
380	0.0093	1
382	0.0094	1
384	0.0096	1
386	0.0099	1
388	0.0104	1
390	0.0106	1
392	0.0108	1
394	0.0107	1
396	0.0105	1
398	0.0102	1
400	0.0095	1
402	0.0086	1
404	0.0078	1
406	0.0069	1
408	0.0061	1
410	0.0055	1
412	0.005	1
414	0.0047	1
416	0.0045	1
418	0.0044	1
420	0.0045	1
422	0.0046	1
424	0.0048	1
426	0.0049	1
428	0.0052	1
430	0.0056	1
432	0.0059	1
434	0.0062	1
436	0.0066	1
438	0.0071	1
440	0.0075	1
442	0.008	1
444	0.0084	1
446	0.0092	1
448	0.0096	1
450	0.0102	1
452	0.011	1
454	0.0115	1
456	0.0122	1
458	0.0129	1
460	0.0136	1
462	0.0142	1
464	0.015	1
466	0.0156	1
468	0.0163	1
470	0.017	1
472	0.0176	1
474	0.0182	1
476	0.0191	1
478	0.0198	1
480	0.0205	1
482	0.0214	1
484	0.022	1
486	0.0228	1
488	0.0234	1
490	0.0241	1
492	0.0246	1
494	0.0253	1
496	0.0255	1
498	0.026	1
500	0.0262	1
502	0.0262	1
504	0.0263	1
506	0.0264	1
508	0.0264	1
510	0.0263	1
512	0.0263	1
514	0.0265	1
516	0.0266	1
518	0.0272	1
520	0.0276	1
522	0.0282	1
524	0.0289	1
526	0.0298	1
528	0.031	1
530	0.032	1
532	0.0338	1
534	0.0351	1
536	0.0373	1
538	0.0393	1
540	0.0417	1
542	0.0442	1
544	0.0472	1
546	0.0505	1
548	0.0536	1
550	0.0575	1
552	0.0614	1
554	0.0658	1
556	0.0697	1
558	0.0744	1
560	0.0792	1
562	0.0848	1
564	0.0906	1
566	0.0968	1
568	0.1015	1
570	0.1061	1
572	0.1121	1
574	0.1185	1
576	0.1264	1
578	0.1336	1
580	0.1438	1
582	0.1516	1
584	0.1651	1
586	0.1757	1
588	0.1882	1
590	0.2031	1
592	0.2187	1
594	0.2319	1
596	0.2473	1
598	0.264	1
600	0.2783	1
602	0.2938	1
604	0.3068	1
606	0.3189	1
608	0.3292	1
610	0.3377	1
612	0.3438	1
614	0.3481	1
616	0.3509	1
618	0.3531	1
620	0.3549	1
622	0.3573	1
624	0.3604	1
626	0.3649	1
628	0.3711	1
630	0.3788	1
632	0.389	1
634	0.4024	1
636	0.4182	1
638	0.4354	1
640	0.4542	1
642	0.4744	1
644	0.4977	1
646	0.5204	1
648	0.5497	1
650	0.5699	1
652	0.5999	1
654	0.6156	1
656	0.6392	1
658	0.6396	1
660	0.6417	1
662	0.6472	1
664	0.6567	1
666	0.6552	1
668	0.6411	1
670	0.6201	1
672	0.5948	1
674	0.5476	1
676	0.4949	1
678	0.437	1
680	0.3852	1
682	0.3316	1
684	0.2715	1
686	0.2324	1
688	0.1955	1
690	0.158	1
692	0.1289	1
694	0.1075	1
696	0.0848	1
698	0.0695	1
700	0.0585	1
702	0.0465	1
704	0.0393	1
706	0.0306	1
708	0.0258	1
710	0.0218	1
712	0.0186	1
714	0.0157	1
716	0.0143	1
718	0.0123	1
720	0.0106	1
722	0.0096	1
724	0.0087	1
726	0.0075	1
728	0.0065	1
730	0.0059	1
732	0.0052	1
734	0.0051	1
736	0.0043	1
738	0.0042	1
740	0.0042	1
742	0.0039	1
744	0.0037	1
746	0.0036	1
748	0.0033	1
750	0.0031	1
752	0.0027	1
754	0.0025	1
756	0.0023	1
758	0.0023	1
760	0.0023	1
762	0.0022	1
764	0.0019	1
766	0.0021	1
768	0.0019	1
770	0.002	1
772	0.0017	1
774	0.0019	1
776	0.0017	1
778	0.0016	1
780	0.0016	1
782	0.0016	1
784	0.0014	1
786	0.0014	1
788	0.0014	1
790	0.0014	1
792	0.0012	1
794	0.0014	1
796	0.0014	1
798	0.0016	1
800	0.0014	1
802	0.0013	1
804	0.0016	1
806	0.0013	1
808	0.0014	1
810	0.0011	1
812	0.0011	1
814	0.0012	1
816	0.0009	1
818	0.0013	1
820	0.0012	1
